####################################################################################################
# Month: 10Oct                                                                                     #
# Station: /n/holylfs05/LABS/bhi/Lab/doeleman_lab/freemanmd/am_output/HAY                          #
# Columns are: year    month   day     Tbase (K)                                                   #
####################################################################################################
year,month,day,Tbase
2009,10,1,276.3625
2009,10,2,277.2
2009,10,3,285.1375
2009,10,4,287.025
2009,10,5,283.95
2009,10,6,281.1875
2009,10,7,283.675
2009,10,8,279.3875
2009,10,9,282.2
2009,10,10,284.3375
2009,10,11,278.75
2009,10,12,275.2125
2009,10,13,276.375
2009,10,14,273.225
2009,10,15,270.375
2009,10,16,270.6625
2009,10,17,272.4
2009,10,18,273.5
2009,10,19,274.425
2009,10,20,280.35
2009,10,21,281.9625
2009,10,22,285.525
2009,10,23,282.45
2009,10,24,281.1375
2009,10,25,288.4125
2009,10,26,278.25
2009,10,27,279.05
2009,10,28,279.7625
2009,10,29,277.25
2009,10,30,288.6625
2009,10,31,287.0375
2010,10,1,291.0
2010,10,2,282.2375
2010,10,3,278.725
2010,10,4,278.9875
2010,10,5,281.5375
2010,10,6,283.95
2010,10,7,282.3625
2010,10,8,284.1
2010,10,9,282.0125
2010,10,10,279.8125
2010,10,11,283.5375
2010,10,12,281.9125
2010,10,13,279.65
2010,10,14,280.5625
2010,10,15,278.5
2010,10,16,275.6
2010,10,17,278.8625
2010,10,18,278.375
2010,10,19,276.8375
2010,10,20,279.7
2010,10,21,280.1125
2010,10,22,273.025
2010,10,23,272.65
2010,10,24,277.5
2010,10,25,285.3625
2010,10,26,287.4375
2010,10,27,289.9375
2010,10,28,288.3375
2010,10,29,278.65
2010,10,30,274.275
2010,10,31,276.4625
2011,10,1,288.85
2011,10,2,285.775
2011,10,3,283.9375
2011,10,4,282.5125
2011,10,5,282.1125
2011,10,6,278.0125
2011,10,7,278.1125
2011,10,8,288.55
2011,10,9,294.0875
2011,10,10,292.1125
2011,10,11,285.0375
2011,10,12,280.6125
2011,10,13,285.0625
2011,10,14,289.125
2011,10,15,283.4875
2011,10,16,280.8375
2011,10,17,281.8125
2011,10,18,282.7875
2011,10,19,284.775
2011,10,20,287.0
2011,10,21,280.8
2011,10,22,279.0125
2011,10,23,277.0125
2011,10,24,278.55
2011,10,25,279.3
2011,10,26,276.625
2011,10,27,275.425
2011,10,28,270.85
2011,10,29,271.7625
2011,10,30,270.9375
2011,10,31,274.325
2012,10,1,282.3125
2012,10,2,286.2125
2012,10,3,290.1
2012,10,4,289.05
2012,10,5,288.15
2012,10,6,289.8375
2012,10,7,278.2375
2012,10,8,276.4
2012,10,9,277.5375
2012,10,10,280.6375
2012,10,11,278.0
2012,10,12,277.7375
2012,10,13,271.475
2012,10,14,279.2
2012,10,15,287.4875
2012,10,16,280.85
2012,10,17,278.0375
2012,10,18,282.8875
2012,10,19,284.725
2012,10,20,288.725
2012,10,21,281.625
2012,10,22,280.475
2012,10,23,281.5
2012,10,24,279.75
2012,10,25,281.8875
2012,10,26,283.825
2012,10,27,284.6625
2012,10,28,281.3375
2012,10,29,281.7875
2012,10,30,286.55
2012,10,31,283.0125
2013,10,1,287.35
2013,10,2,289.8375
2013,10,3,288.5625
2013,10,4,287.75
2013,10,5,285.8
2013,10,6,283.5
2013,10,7,288.4375
2013,10,8,282.9625
2013,10,9,289.375
2013,10,10,284.425
2013,10,11,286.2375
2013,10,12,284.975
2013,10,13,280.2125
2013,10,14,281.675
2013,10,15,284.4875
2013,10,16,284.4375
2013,10,17,286.575
2013,10,18,284.875
2013,10,19,281.4875
2013,10,20,280.1625
2013,10,21,280.2375
2013,10,22,282.3875
2013,10,23,277.2375
2013,10,24,275.5375
2013,10,25,273.775
2013,10,26,274.9375
2013,10,27,276.525
2013,10,28,276.1125
2013,10,29,272.425
2013,10,30,275.0
2013,10,31,280.8625
2014,10,1,284.3875
2014,10,2,282.325
2014,10,3,283.05
2014,10,4,284.0125
2014,10,5,282.0875
2014,10,6,280.75
2014,10,7,284.8
2014,10,8,286.4
2014,10,9,281.0
2014,10,10,279.6875
2014,10,11,278.5625
2014,10,12,278.3375
2014,10,13,280.5625
2014,10,14,287.1625
2014,10,15,289.2625
2014,10,16,290.45
2014,10,17,286.6625
2014,10,18,286.4375
2014,10,19,278.025
2014,10,20,274.475
2014,10,21,281.525
2014,10,22,280.6625
2014,10,23,279.7
2014,10,24,278.55
2014,10,25,281.275
2014,10,26,282.05
2014,10,27,278.2625
2014,10,28,282.525
2014,10,29,289.65
2014,10,30,279.2375
2014,10,31,276.3375
2015,10,1,281.7125
2015,10,2,289.3375
2015,10,3,290.2
2015,10,4,289.2125
2015,10,5,284.85
2015,10,6,283.0
2015,10,7,283.4125
2015,10,8,281.8125
2015,10,9,284.6
2015,10,10,279.7125
2015,10,11,282.3625
2015,10,12,289.0625
2015,10,13,288.975
2015,10,14,284.8125
2015,10,15,278.3625
2015,10,16,280.6125
2015,10,17,277.2625
2015,10,18,270.5375
2015,10,19,269.175
2015,10,20,281.25
2015,10,21,283.875
2015,10,22,287.225
2015,10,23,277.675
2015,10,24,298.5375
2015,10,25,279.15
2015,10,26,275.1125
2015,10,27,275.575
2015,10,28,277.85
2015,10,29,288.0125
2015,10,30,278.8
2015,10,31,275.5875
2016,10,1,281.95
2016,10,2,283.05
2016,10,3,285.1625
2016,10,4,282.1125
2016,10,5,282.4625
2016,10,6,286.1
2016,10,7,287.0875
2016,10,8,287.05
2016,10,9,283.7
2016,10,10,276.675
2016,10,11,282.675
2016,10,12,284.7375
2016,10,13,283.7
2016,10,14,278.3625
2016,10,15,277.1375
2016,10,16,284.55
2016,10,17,288.4125
2016,10,18,288.925
2016,10,19,290.675
2016,10,20,284.3875
2016,10,21,287.825
2016,10,22,286.0125
2016,10,23,274.925
2016,10,24,278.075
2016,10,25,272.775
2016,10,26,270.975
2016,10,27,271.05
2016,10,28,275.95
2016,10,29,277.55
2016,10,30,283.0875
2016,10,31,274.15
2017,10,1,279.85
2017,10,2,283.6125
2017,10,3,283.4375
2017,10,4,287.925
2017,10,5,290.825
2017,10,6,287.9625
2017,10,7,288.5125
2017,10,8,290.9875
2017,10,9,291.7625
2017,10,10,290.2375
2017,10,11,287.2875
2017,10,12,278.7875
2017,10,13,279.725
2017,10,14,284.875
2017,10,15,288.35
2017,10,16,283.625
2017,10,17,275.35
2017,10,18,283.7875
2017,10,19,287.5375
2017,10,20,285.6
2017,10,21,287.4125
2017,10,22,289.8125
2017,10,23,287.9
2017,10,24,288.575
2017,10,25,288.9875
2017,10,26,283.6125
2017,10,27,277.9875
2017,10,28,283.3
2017,10,29,284.825
2017,10,30,284.275
2017,10,31,278.1
2018,10,1,283.8875
2018,10,2,284.1875
2018,10,3,287.425
2018,10,4,287.05
2018,10,5,291.2
2018,10,6,284.2375
2018,10,7,289.15
2018,10,8,282.15
2018,10,9,289.1625
2018,10,10,292.3125
2018,10,11,291.4375
2018,10,12,289.6
2018,10,13,277.125
2018,10,14,276.6875
2018,10,15,281.05
2018,10,16,279.15
2018,10,17,278.7125
2018,10,18,270.9875
2018,10,19,275.1
2018,10,20,281.675
2018,10,21,276.0375
2018,10,22,270.65
2018,10,23,276.3625
2018,10,24,275.2
2018,10,25,272.7375
2018,10,26,269.6875
2018,10,27,278.4125
2018,10,28,281.85
2018,10,29,277.8
2018,10,30,273.2375
2018,10,31,276.525
2019,10,1,285.3375
2019,10,2,291.2625
2019,10,3,289.75
2019,10,4,282.375
2019,10,5,276.0125
2019,10,6,280.275
2019,10,7,287.3375
2019,10,8,283.3
2019,10,9,281.1
2019,10,10,280.25
2019,10,11,279.5375
2019,10,12,280.025
2019,10,13,282.7875
2019,10,14,284.5625
2019,10,15,280.45
2019,10,16,280.525
2019,10,17,280.8625
2019,10,18,278.0875
2019,10,19,277.575
2019,10,20,280.05
2019,10,21,281.375
2019,10,22,282.675
2019,10,23,284.65
2019,10,24,281.7375
2019,10,25,283.35
2019,10,26,279.95
2019,10,27,282.3
2019,10,28,289.25
2019,10,29,278.65
2019,10,30,283.7375
2019,10,31,287.8
