####################################################################################################
# Month: 08Aug                                                                                     #
# Station: /n/holylfs05/LABS/bhi/Lab/doeleman_lab/freemanmd/am_output/LAS                          #
# Columns are: year    month   day     Tbase (K)                                                   #
####################################################################################################
year,month,day,Tbase
2009,08,1,279.6375
2009,08,2,282.2
2009,08,3,283.1
2009,08,4,281.4
2009,08,5,279.6125
2009,08,6,281.25
2009,08,7,275.9625
2009,08,8,272.1875
2009,08,9,276.7
2009,08,10,283.9
2009,08,11,285.5
2009,08,12,284.8
2009,08,13,284.7125
2009,08,14,283.9625
2009,08,15,278.4625
2009,08,16,272.2125
2009,08,17,277.0
2009,08,18,275.4875
2009,08,19,272.2375
2009,08,20,276.0
2009,08,21,279.475
2009,08,22,277.15
2009,08,23,277.85
2009,08,24,281.225
2009,08,25,286.225
2009,08,26,288.975
2009,08,27,289.125
2009,08,28,288.1
2009,08,29,285.2375
2009,08,30,285.05
2009,08,31,281.0375
2010,08,1,275.9875
2010,08,2,277.0125
2010,08,3,278.6
2010,08,4,278.675
2010,08,5,282.45
2010,08,6,283.225
2010,08,7,280.325
2010,08,8,279.3375
2010,08,9,282.7
2010,08,10,282.125
2010,08,11,272.8
2010,08,12,270.6125
2010,08,13,278.4125
2010,08,14,280.675
2010,08,15,281.2625
2010,08,16,277.4125
2010,08,17,279.95
2010,08,18,279.9875
2010,08,19,283.275
2010,08,20,284.9375
2010,08,21,284.1875
2010,08,22,282.1125
2010,08,23,278.425
2010,08,24,277.9125
2010,08,25,278.4
2010,08,26,280.2875
2010,08,27,281.1125
2010,08,28,280.6125
2010,08,29,281.7875
2010,08,30,279.8625
2010,08,31,276.1625
2011,08,1,270.5625
2011,08,2,275.2625
2011,08,3,279.7375
2011,08,4,281.25
2011,08,5,279.5
2011,08,6,280.5875
2011,08,7,280.6
2011,08,8,279.7625
2011,08,9,284.575
2011,08,10,286.2625
2011,08,11,285.4375
2011,08,12,282.7125
2011,08,13,282.7625
2011,08,14,282.1
2011,08,15,277.0
2011,08,16,270.55
2011,08,17,277.4125
2011,08,18,274.2375
2011,08,19,269.175
2011,08,20,274.35
2011,08,21,275.6125
2011,08,22,275.3625
2011,08,23,280.075
2011,08,24,275.4
2011,08,25,279.525
2011,08,26,281.5125
2011,08,27,273.1625
2011,08,28,277.2625
2011,08,29,274.8625
2011,08,30,278.5
2011,08,31,285.5125
2012,08,1,275.225
2012,08,2,272.7625
2012,08,3,269.95
2012,08,4,273.0
2012,08,5,279.4375
2012,08,6,274.0875
2012,08,7,272.1875
2012,08,8,281.2625
2012,08,9,285.2125
2012,08,10,284.875
2012,08,11,278.75
2012,08,12,277.6375
2012,08,13,281.8375
2012,08,14,277.0625
2012,08,15,276.45
2012,08,16,273.9
2012,08,17,270.8875
2012,08,18,274.35
2012,08,19,279.0125
2012,08,20,279.25
2012,08,21,281.4375
2012,08,22,276.0
2012,08,23,269.225
2012,08,24,272.7125
2012,08,25,281.475
2012,08,26,281.425
2012,08,27,283.55
2012,08,28,286.3625
2012,08,29,287.4625
2012,08,30,286.325
2012,08,31,286.3375
2013,08,1,274.375
2013,08,2,276.575
2013,08,3,275.325
2013,08,4,278.5
2013,08,5,284.275
2013,08,6,283.85
2013,08,7,280.4375
2013,08,8,276.1
2013,08,9,273.7125
2013,08,10,282.5
2013,08,11,284.625
2013,08,12,281.725
2013,08,13,281.2625
2013,08,14,286.05
2013,08,15,285.6875
2013,08,16,284.9875
2013,08,17,285.1875
2013,08,18,283.4125
2013,08,19,282.4125
2013,08,20,282.2875
2013,08,21,282.425
2013,08,22,281.225
2013,08,23,278.35
2013,08,24,274.7625
2013,08,25,273.175
2013,08,26,275.2125
2013,08,27,283.05
2013,08,28,287.8875
2013,08,29,285.6875
2013,08,30,282.625
2013,08,31,281.4
2014,08,1,284.725
2014,08,2,285.8375
2014,08,3,283.4125
2014,08,4,283.475
2014,08,5,284.075
2014,08,6,279.1375
2014,08,7,281.225
2014,08,8,282.9625
2014,08,9,282.0625
2014,08,10,281.6375
2014,08,11,279.7
2014,08,12,280.525
2014,08,13,282.1
2014,08,14,282.3
2014,08,15,281.7
2014,08,16,282.975
2014,08,17,286.6125
2014,08,18,288.4375
2014,08,19,287.05
2014,08,20,285.0625
2014,08,21,283.8625
2014,08,22,281.45
2014,08,23,273.9
2014,08,24,272.3
2014,08,25,278.6125
2014,08,26,281.4125
2014,08,27,279.575
2014,08,28,280.4375
2014,08,29,280.8125
2014,08,30,278.175
2014,08,31,280.6625
2015,08,1,281.225
2015,08,2,281.125
2015,08,3,283.9125
2015,08,4,283.5875
2015,08,5,280.9875
2015,08,6,277.0
2015,08,7,276.2375
2015,08,8,272.5625
2015,08,9,270.525
2015,08,10,270.0875
2015,08,11,271.125
2015,08,12,269.9625
2015,08,13,271.475
2015,08,14,270.7875
2015,08,15,276.6
2015,08,16,273.225
2015,08,17,272.225
2015,08,18,280.575
2015,08,19,280.3375
2015,08,20,277.8625
2015,08,21,278.2875
2015,08,22,278.0125
2015,08,23,281.2875
2015,08,24,281.1125
2015,08,25,278.525
2015,08,26,277.525
2015,08,27,282.45
2015,08,28,286.0625
2015,08,29,288.725
2015,08,30,288.45
2015,08,31,287.475
2016,08,1,280.1
2016,08,2,281.85
2016,08,3,283.05
2016,08,4,282.8875
2016,08,5,280.3
2016,08,6,279.7875
2016,08,7,281.8875
2016,08,8,281.0875
2016,08,9,282.6375
2016,08,10,284.425
2016,08,11,283.3
2016,08,12,285.4125
2016,08,13,284.45
2016,08,14,284.2375
2016,08,15,286.3625
2016,08,16,284.125
2016,08,17,280.9875
2016,08,18,280.95
2016,08,19,278.4375
2016,08,20,277.8625
2016,08,21,287.6875
2016,08,22,289.0
2016,08,23,286.7625
2016,08,24,283.5
2016,08,25,283.55
2016,08,26,282.0125
2016,08,27,276.825
2016,08,28,272.7375
2016,08,29,275.9125
2016,08,30,281.5125
2016,08,31,281.65
2017,08,1,274.8
2017,08,2,275.725
2017,08,3,281.3375
2017,08,4,283.05
2017,08,5,283.0875
2017,08,6,282.45
2017,08,7,278.825
2017,08,8,281.2375
2017,08,9,279.7625
2017,08,10,274.8125
2017,08,11,269.95
2017,08,12,266.75
2017,08,13,272.4125
2017,08,14,278.6625
2017,08,15,280.4
2017,08,16,281.0125
2017,08,17,282.525
2017,08,18,281.95
2017,08,19,277.975
2017,08,20,280.275
2017,08,21,285.375
2017,08,22,282.9625
2017,08,23,279.125
2017,08,24,278.375
2017,08,25,275.175
2017,08,26,277.3
2017,08,27,277.8375
2017,08,28,277.0125
2017,08,29,278.0375
2017,08,30,282.625
2017,08,31,282.9
2018,08,1,278.0875
2018,08,2,277.7875
2018,08,3,279.2375
2018,08,4,280.85
2018,08,5,280.4125
2018,08,6,282.1375
2018,08,7,278.95
2018,08,8,284.9
2018,08,9,287.3125
2018,08,10,287.3375
2018,08,11,285.3625
2018,08,12,283.125
2018,08,13,280.9625
2018,08,14,284.5625
2018,08,15,285.3875
2018,08,16,285.1875
2018,08,17,285.6625
2018,08,18,284.075
2018,08,19,280.9875
2018,08,20,278.7875
2018,08,21,280.1
2018,08,22,281.7
2018,08,23,279.425
2018,08,24,279.7625
2018,08,25,284.3
2018,08,26,287.2
2018,08,27,284.6
2018,08,28,281.0875
2018,08,29,280.0
2018,08,30,277.375
2018,08,31,274.2125
2019,08,1,278.825
2019,08,2,278.9125
2019,08,3,283.95
2019,08,4,286.375
2019,08,5,287.3875
2019,08,6,284.925
2019,08,7,281.75
2019,08,8,275.6125
2019,08,9,273.325
2019,08,10,281.125
2019,08,11,279.0875
2019,08,12,279.2
2019,08,13,284.1375
2019,08,14,285.95
2019,08,15,283.7125
2019,08,16,283.05
2019,08,17,279.3875
2019,08,18,280.6625
2019,08,19,282.0125
2019,08,20,284.15
2019,08,21,285.5625
2019,08,22,285.1375
2019,08,23,287.4375
2019,08,24,285.825
2019,08,25,282.575
2019,08,26,284.3875
2019,08,27,288.85
2019,08,28,288.7375
2019,08,29,286.0625
2019,08,30,282.35
2019,08,31,280.1
