####################################################################################################
# Month: 10Oct                                                                                     #
# Station: /n/holylfs05/LABS/bhi/Lab/doeleman_lab/freemanmd/am_output/NOR                          #
# Columns are: year    month   day     Tbase (K)                                                   #
####################################################################################################
year,month,day,Tbase
2009,10,1,276.9375
2009,10,2,278.6125
2009,10,3,277.3625
2009,10,4,275.9125
2009,10,5,275.975
2009,10,6,276.775
2009,10,7,276.2875
2009,10,8,276.775
2009,10,9,270.5875
2009,10,10,268.525
2009,10,11,271.5375
2009,10,12,272.5625
2009,10,13,271.8375
2009,10,14,268.425
2009,10,15,268.625
2009,10,16,270.1625
2009,10,17,271.6125
2009,10,18,272.0
2009,10,19,272.6
2009,10,20,273.925
2009,10,21,273.2625
2009,10,22,271.925
2009,10,23,271.3625
2009,10,24,271.15
2009,10,25,272.2125
2009,10,26,271.35
2009,10,27,269.225
2009,10,28,272.3625
2009,10,29,270.55
2009,10,30,271.475
2009,10,31,274.2375
2010,10,1,277.025
2010,10,2,279.1
2010,10,3,278.775
2010,10,4,278.0375
2010,10,5,274.6125
2010,10,6,275.8375
2010,10,7,273.8375
2010,10,8,274.075
2010,10,9,276.775
2010,10,10,275.425
2010,10,11,280.425
2010,10,12,276.5875
2010,10,13,274.95
2010,10,14,274.375
2010,10,15,273.45
2010,10,16,272.85
2010,10,17,272.775
2010,10,18,273.1
2010,10,19,274.65
2010,10,20,275.0375
2010,10,21,275.1375
2010,10,22,276.1375
2010,10,23,277.0375
2010,10,24,276.6125
2010,10,25,276.55
2010,10,26,271.025
2010,10,27,271.9125
2010,10,28,274.475
2010,10,29,274.75
2010,10,30,277.0125
2010,10,31,273.9875
2011,10,1,274.675
2011,10,2,272.7125
2011,10,3,269.2625
2011,10,4,273.075
2011,10,5,277.1875
2011,10,6,275.375
2011,10,7,272.975
2011,10,8,271.075
2011,10,9,273.925
2011,10,10,272.6125
2011,10,11,270.375
2011,10,12,273.825
2011,10,13,272.2875
2011,10,14,276.8375
2011,10,15,277.6125
2011,10,16,276.95
2011,10,17,274.6
2011,10,18,272.3125
2011,10,19,273.6625
2011,10,20,277.0875
2011,10,21,277.75
2011,10,22,277.35
2011,10,23,277.1625
2011,10,24,278.775
2011,10,25,273.9
2011,10,26,271.2625
2011,10,27,274.5
2011,10,28,275.3875
2011,10,29,274.9
2011,10,30,273.5625
2011,10,31,274.5875
2012,10,1,278.7
2012,10,2,276.55
2012,10,3,278.2625
2012,10,4,275.525
2012,10,5,277.5375
2012,10,6,273.725
2012,10,7,272.325
2012,10,8,273.0
2012,10,9,274.375
2012,10,10,273.6875
2012,10,11,270.55
2012,10,12,271.1375
2012,10,13,274.2375
2012,10,14,273.4625
2012,10,15,273.925
2012,10,16,276.2875
2012,10,17,278.5375
2012,10,18,276.375
2012,10,19,273.325
2012,10,20,271.1375
2012,10,21,275.075
2012,10,22,275.0875
2012,10,23,271.3375
2012,10,24,273.1875
2012,10,25,271.3875
2012,10,26,270.6375
2012,10,27,272.85
2012,10,28,272.475
2012,10,29,271.2375
2012,10,30,268.825
2012,10,31,266.3125
2013,10,1,280.675
2013,10,2,278.6625
2013,10,3,275.9375
2013,10,4,278.55
2013,10,5,280.5375
2013,10,6,282.2375
2013,10,7,281.1875
2013,10,8,281.8875
2013,10,9,280.925
2013,10,10,279.85
2013,10,11,279.8
2013,10,12,276.575
2013,10,13,276.6875
2013,10,14,279.1
2013,10,15,278.1
2013,10,16,272.5375
2013,10,17,271.825
2013,10,18,270.7125
2013,10,19,273.1
2013,10,20,275.9375
2013,10,21,276.4
2013,10,22,274.0125
2013,10,23,275.45
2013,10,24,277.775
2013,10,25,278.0375
2013,10,26,272.45
2013,10,27,270.9125
2013,10,28,271.475
2013,10,29,271.0625
2013,10,30,271.675
2013,10,31,271.8875
2014,10,1,279.1
2014,10,2,278.925
2014,10,3,279.675
2014,10,4,279.75
2014,10,5,280.0125
2014,10,6,277.2125
2014,10,7,274.825
2014,10,8,273.25
2014,10,9,274.2125
2014,10,10,276.375
2014,10,11,277.1125
2014,10,12,279.3625
2014,10,13,278.7625
2014,10,14,273.9
2014,10,15,270.0875
2014,10,16,268.65
2014,10,17,270.7625
2014,10,18,269.1875
2014,10,19,274.2
2014,10,20,274.2625
2014,10,21,275.825
2014,10,22,274.0625
2014,10,23,271.7375
2014,10,24,273.0125
2014,10,25,273.425
2014,10,26,273.7875
2014,10,27,271.4625
2014,10,28,271.8875
2014,10,29,273.1125
2014,10,30,272.25
2014,10,31,271.975
2015,10,1,280.7375
2015,10,2,278.5125
2015,10,3,278.1125
2015,10,4,274.95
2015,10,5,273.5875
2015,10,6,271.225
2015,10,7,272.7625
2015,10,8,274.5625
2015,10,9,273.6
2015,10,10,273.475
2015,10,11,272.4875
2015,10,12,273.6125
2015,10,13,274.3625
2015,10,14,273.775
2015,10,15,275.0625
2015,10,16,274.875
2015,10,17,272.1875
2015,10,18,275.9625
2015,10,19,277.1625
2015,10,20,276.6125
2015,10,21,275.675
2015,10,22,275.6375
2015,10,23,276.075
2015,10,24,273.5875
2015,10,25,272.65
2015,10,26,272.55
2015,10,27,275.125
2015,10,28,274.4125
2015,10,29,270.55
2015,10,30,268.975
2015,10,31,269.175
2016,10,1,280.3625
2016,10,2,281.55
2016,10,3,280.65
2016,10,4,282.0125
2016,10,5,282.5875
2016,10,6,278.6875
2016,10,7,277.975
2016,10,8,279.75
2016,10,9,279.3125
2016,10,10,274.6125
2016,10,11,273.05
2016,10,12,270.5625
2016,10,13,269.5125
2016,10,14,271.6125
2016,10,15,272.95
2016,10,16,275.4875
2016,10,17,277.575
2016,10,18,276.825
2016,10,19,275.1
2016,10,20,275.525
2016,10,21,274.0
2016,10,22,274.4875
2016,10,23,271.7
2016,10,24,271.7125
2016,10,25,274.95
2016,10,26,275.9625
2016,10,27,274.325
2016,10,28,275.975
2016,10,29,272.175
2016,10,30,270.4875
2016,10,31,270.8625
2017,10,1,278.8
2017,10,2,277.725
2017,10,3,278.9625
2017,10,4,274.4375
2017,10,5,276.5625
2017,10,6,277.575
2017,10,7,278.65
2017,10,8,281.8
2017,10,9,279.4375
2017,10,10,280.0875
2017,10,11,279.9875
2017,10,12,276.35
2017,10,13,274.3125
2017,10,14,275.2625
2017,10,15,275.6625
2017,10,16,275.2375
2017,10,17,274.4375
2017,10,18,272.6125
2017,10,19,275.625
2017,10,20,277.2125
2017,10,21,276.0625
2017,10,22,280.2125
2017,10,23,274.05
2017,10,24,273.225
2017,10,25,273.025
2017,10,26,274.1875
2017,10,27,274.725
2017,10,28,275.425
2017,10,29,275.9625
2017,10,30,269.4875
2017,10,31,272.45
2018,10,1,280.05
2018,10,2,275.75
2018,10,3,276.925
2018,10,4,278.5125
2018,10,5,279.775
2018,10,6,282.5625
2018,10,7,283.1875
2018,10,8,278.5
2018,10,9,276.625
2018,10,10,277.2
2018,10,11,276.1
2018,10,12,275.3875
2018,10,13,273.2125
2018,10,14,271.2375
2018,10,15,271.1
2018,10,16,271.75
2018,10,17,269.2
2018,10,18,269.8625
2018,10,19,268.8125
2018,10,20,268.125
2018,10,21,271.7875
2018,10,22,271.6375
2018,10,23,271.8625
2018,10,24,272.2875
2018,10,25,273.575
2018,10,26,274.3
2018,10,27,273.6625
2018,10,28,272.225
2018,10,29,271.1875
2018,10,30,268.6875
2018,10,31,267.65
2019,10,1,277.1875
2019,10,2,277.3
2019,10,3,279.0375
2019,10,4,280.7625
2019,10,5,276.6375
2019,10,6,276.8125
2019,10,7,275.9875
2019,10,8,277.65
2019,10,9,277.875
2019,10,10,279.0
2019,10,11,279.3
2019,10,12,283.8625
2019,10,13,278.475
2019,10,14,276.3375
2019,10,15,272.8625
2019,10,16,274.0125
2019,10,17,273.3375
2019,10,18,277.95
2019,10,19,278.5
2019,10,20,277.775
2019,10,21,276.525
2019,10,22,276.85
2019,10,23,276.425
2019,10,24,274.2625
2019,10,25,277.9125
2019,10,26,274.175
2019,10,27,270.075
2019,10,28,272.1625
2019,10,29,274.1375
2019,10,30,275.225
2019,10,31,274.925
